# Average Spectral response curve for Spitzer IRAC 3.6 micron subarray

# Extracted from:
# http://irsa.ipac.caltech.edu/data/SPITZER/docs/irac/calibrationfiles/spectralresponse/080924ch1trans_sub.txt

# Wave     Spectral Response
# microns  electrons / photon
3.081060	0.001538
3.082890	0.001477
3.084730	0.001408
3.086560	0.001385
3.088400	0.001344
3.090240	0.001444
3.092080	0.001530
3.093930	0.001311
3.095780	0.001313
3.097620	0.001518
3.099480	0.001412
3.101330	0.001458
3.103190	0.001659
3.105040	0.001635
3.106900	0.001822
3.108770	0.002101
3.110630	0.002365
3.112500	0.002984
3.114370	0.003447
3.116240	0.003806
3.118110	0.004785
3.119990	0.005947
3.121870	0.006984
3.123750	0.008359
3.125630	0.010280
3.127520	0.012570
3.129400	0.015280
3.131290	0.018530
3.133190	0.022390
3.135080	0.027270
3.136980	0.032890
3.138880	0.039170
3.140780	0.046530
3.142680	0.054690
3.144590	0.063800
3.146490	0.074140
3.148410	0.085390
3.150320	0.098060
3.152230	0.111800
3.154150	0.125800
3.156070	0.141000
3.157990	0.157000
3.159920	0.173400
3.161840	0.190400
3.163770	0.207400
3.165700	0.225000
3.167640	0.242000
3.169570	0.258000
3.171510	0.275100
3.173450	0.291200
3.175400	0.305400
3.177340	0.318800
3.179290	0.331900
3.181240	0.342000
3.183190	0.349700
3.185150	0.358400
3.187110	0.364600
3.189070	0.367100
3.191030	0.369500
3.192990	0.371500
3.194960	0.371400
3.196930	0.369800
3.198900	0.368600
3.200880	0.366200
3.202860	0.361600
3.204840	0.358600
3.206820	0.357000
3.208800	0.354400
3.210790	0.352100
3.212780	0.349600
3.214770	0.347400
3.216760	0.346800
3.218760	0.347400
3.220760	0.348200
3.222760	0.347000
3.224770	0.347400
3.226770	0.350200
3.228780	0.351100
3.230790	0.352700
3.232810	0.355600
3.234820	0.358100
3.236840	0.362100
3.238870	0.365600
3.240890	0.368600
3.242920	0.372100
3.244950	0.376000
3.246980	0.381100
3.249010	0.385200
3.251050	0.388300
3.253090	0.392900
3.255130	0.397200
3.257180	0.401100
3.259220	0.405300
3.261270	0.408100
3.263320	0.410400
3.265380	0.412300
3.267440	0.413200
3.269500	0.414700
3.271560	0.416800
3.273630	0.417000
3.275690	0.416900
3.277760	0.416800
3.279840	0.415600
3.281910	0.415400
3.283990	0.414300
3.286070	0.412000
3.288160	0.410400
3.290240	0.409500
3.292330	0.409000
3.294420	0.407600
3.296520	0.406400
3.298620	0.405900
3.300710	0.403600
3.302820	0.403300
3.304920	0.404300
3.307030	0.402900
3.309140	0.402900
3.311250	0.403500
3.313370	0.403900
3.315490	0.405100
3.317610	0.404700
3.319730	0.403500
3.321860	0.404500
3.323990	0.406100
3.326120	0.407000
3.328260	0.407800
3.330390	0.407600
3.332530	0.408300
3.334680	0.410000
3.336820	0.410000
3.338970	0.409700
3.341120	0.409900
3.343280	0.409400
3.345430	0.409300
3.347590	0.409300
3.349760	0.409600
3.351920	0.409300
3.354090	0.409000
3.356260	0.409200
3.358430	0.408200
3.360610	0.408700
3.362790	0.409300
3.364970	0.408900
3.367160	0.410700
3.369350	0.411000
3.371540	0.409200
3.373730	0.411800
3.375930	0.414700
3.378130	0.415200
3.380330	0.416700
3.382530	0.418100
3.384740	0.419500
3.386950	0.422500
3.389170	0.424700
3.391380	0.427100
3.393600	0.429300
3.395820	0.430300
3.398050	0.433200
3.400280	0.434600
3.402510	0.434400
3.404740	0.436000
3.406980	0.435500
3.409220	0.434100
3.411460	0.434800
3.413710	0.434500
3.415960	0.431600
3.418210	0.429500
3.420460	0.429100
3.422720	0.427500
3.424980	0.425800
3.427250	0.424500
3.429510	0.420800
3.431780	0.417400
3.434060	0.416800
3.436330	0.416300
3.438610	0.414700
3.440890	0.413900
3.443180	0.413200
3.445460	0.412900
3.447750	0.413400
3.450050	0.413800
3.452350	0.415000
3.454650	0.416200
3.456950	0.416900
3.459260	0.419300
3.461560	0.422000
3.463880	0.424400
3.466190	0.427500
3.468510	0.429500
3.470830	0.431100
3.473160	0.434000
3.475480	0.437400
3.477820	0.440100
3.480150	0.443500
3.482490	0.447300
3.484830	0.449300
3.487170	0.451900
3.489520	0.454600
3.491870	0.455400
3.494220	0.457000
3.496580	0.458900
3.498940	0.460000
3.501300	0.461700
3.503660	0.461900
3.506030	0.460000
3.508410	0.459000
3.510780	0.460100
3.513160	0.461100
3.515540	0.461200
3.517930	0.461400
3.520310	0.461100
3.522710	0.460700
3.525100	0.460400
3.527500	0.459600
3.529900	0.459700
3.532300	0.460400
3.534710	0.459500
3.537120	0.456900
3.539540	0.455400
3.541960	0.455600
3.544380	0.454600
3.546800	0.453500
3.549230	0.453800
3.551660	0.453200
3.554090	0.452800
3.556530	0.452400
3.558970	0.451800
3.561420	0.452900
3.563860	0.453900
3.566320	0.454600
3.568770	0.454000
3.571230	0.453500
3.573690	0.453900
3.576150	0.454800
3.578620	0.456600
3.581090	0.457500
3.583570	0.457500
3.586050	0.459000
3.588530	0.460800
3.591010	0.461900
3.593500	0.462500
3.595990	0.462800
3.598490	0.462900
3.600990	0.461900
3.603490	0.460500
3.606000	0.459600
3.608510	0.457800
3.611020	0.457000
3.613540	0.456600
3.616060	0.454200
3.618580	0.452400
3.621110	0.450400
3.623640	0.448500
3.626170	0.447300
3.628710	0.445100
3.631250	0.442200
3.633790	0.440100
3.636340	0.438100
3.638890	0.436900
3.641450	0.436700
3.644010	0.435300
3.646570	0.434100
3.649140	0.434600
3.651710	0.433800
3.654280	0.433500
3.656860	0.435500
3.659440	0.435500
3.662020	0.435200
3.664610	0.436700
3.667200	0.438200
3.669800	0.440400
3.672400	0.443100
3.675000	0.444900
3.677610	0.445700
3.680220	0.448000
3.682830	0.452100
3.685450	0.454500
3.688070	0.455700
3.690690	0.458300
3.693320	0.461000
3.695950	0.463700
3.698590	0.465700
3.701230	0.466800
3.703870	0.467600
3.706520	0.469100
3.709170	0.471800
3.711830	0.474300
3.714490	0.475000
3.717150	0.474200
3.719820	0.473500
3.722490	0.473100
3.725160	0.473500
3.727840	0.474200
3.730520	0.473700
3.733210	0.472500
3.735900	0.472200
3.738590	0.471400
3.741290	0.470800
3.743990	0.470600
3.746690	0.469300
3.749400	0.467500
3.752120	0.465700
3.754830	0.465000
3.757550	0.465000
3.760280	0.462800
3.763010	0.460100
3.765740	0.459400
3.768480	0.459300
3.771220	0.458400
3.773960	0.457000
3.776710	0.456900
3.779460	0.457100
3.782220	0.456100
3.784980	0.454900
3.787750	0.455300
3.790510	0.455800
3.793290	0.455100
3.796060	0.455400
3.798840	0.454800
3.801630	0.452800
3.804420	0.453200
3.807210	0.452700
3.810010	0.448800
3.812810	0.446700
3.815620	0.445500
3.818430	0.443100
3.821240	0.441000
3.824060	0.438300
3.826880	0.435200
3.829710	0.434300
3.832540	0.433200
3.835370	0.431300
3.838210	0.431500
3.841050	0.431100
3.843900	0.429300
3.846750	0.429700
3.849610	0.430900
3.852470	0.431400
3.855330	0.433400
3.858200	0.435400
3.861070	0.436800
3.863950	0.439000
3.866830	0.441400
3.869720	0.442700
3.872610	0.442500
3.875500	0.440500
3.878400	0.436900
3.881300	0.431000
3.884210	0.422100
3.887120	0.410900
3.890040	0.396300
3.892960	0.377900
3.895890	0.355300
3.898810	0.329200
3.901750	0.300900
3.904690	0.269600
3.907630	0.236700
3.910580	0.204600
3.913530	0.172800
3.916480	0.142500
3.919440	0.115000
3.922410	0.090880
3.925380	0.070450
3.928350	0.053800
3.931330	0.040510
3.934310	0.029790
3.937300	0.021490
3.940290	0.015190
3.943290	0.010320
3.946290	0.006787
3.949290	0.004011
3.952300	0.001769
3.955320	0.001046
3.958340	0.000788
3.961360	0.000983
3.964390	0.001670
3.967420	0.001986
3.970460	0.002299
3.973500	0.002598
3.976550	0.002757
3.979600	0.002767
3.982660	0.002638
3.985720	0.002642
3.988790	0.002632
3.991860	0.002431
3.994930	0.002323
3.998010	0.002213
4.001100	0.002120
4.004190	0.002118
4.007280	0.001946
4.010380	0.001759
