# Old IRAC 4 (8.0 um) spectral response file.

# Extracted from:
# http://irsa.ipac.caltech.edu/data/SPITZER/docs/irac/calibrationfiles/spectralresponse/irac_tr4_2004-08-09.dat

# wavel (um)  response
 5.618        0.000183
 5.624        0.000116
 5.630        0.000113
 5.636        0.000111
 5.643        0.000111
 5.649        0.000124
 5.655        0.000131
 5.661        0.000091
 5.667        0.000101
 5.673        0.000175
 5.680        0.000178
 5.686        0.000064
 5.692        0.000109
 5.698        0.000163
 5.705        0.000110
 5.711        0.000098
 5.717        0.000069
 5.723        0.000156
 5.730        0.000180
 5.736        0.000177
 5.742        0.000187
 5.749        0.000119
 5.755        0.000139
 5.762        0.000091
 5.768        0.000177
 5.774        0.000058
 5.781        0.000114
 5.787        0.000134
 5.794        0.000335
 5.800        0.000119
 5.807        0.000117
 5.813        0.000206
 5.820        0.000173
 5.826        0.000135
 5.833        0.000131
 5.839        0.000079
 5.846        0.000125
 5.853        0.000363
 5.859        0.000431
 5.866        0.000324
 5.873        0.000222
 5.879        0.000139
 5.886        0.000091
 5.893        0.000217
 5.899        0.000057
 5.906        0.000137
 5.913        0.000012
 5.919        0.000285
 5.926        0.000363
 5.933        0.000279
 5.940        0.000283
 5.947        0.000270
 5.953        0.000280
 5.960        0.000276
 5.967        0.000218
 5.974        0.000041
 5.981        0.000137
 5.988        0.000044
 5.995        0.000318
 6.002        0.000146
 6.009        0.000197
 6.016        0.000205
 6.023        0.000224
 6.030        0.000463
 6.037        0.000418
 6.044        0.000248
 6.051        0.000088
 6.058        0.000196
 6.065        0.000364
 6.072        0.000037
 6.079        0.000245
 6.086        0.000271
 6.093        0.000394
 6.101        0.000301
 6.108        0.000443
 6.115        0.000328
 6.122        0.000255
 6.129        0.000214
 6.137        0.000184
 6.144        0.000317
 6.151        0.000176
 6.159        0.000205
 6.166        0.000284
 6.173        0.000215
 6.181        0.000146
 6.188        0.000148
 6.195        0.000245
 6.203        0.000277
 6.210        0.000321
 6.218        0.000225
 6.225        0.000141
 6.233        0.000129
 6.240        0.000252
 6.248        0.000258
 6.255        0.000327
 6.263        0.000509
 6.270        0.000324
 6.278        0.000372
 6.285        0.000653
 6.293        0.000541
 6.301        0.000429
 6.308        0.000824
 6.316        0.000730
 6.324        0.001048
 6.331        0.001164
 6.339        0.001877
 6.347        0.002577
 6.355        0.004705
 6.363        0.008726
 6.370        0.015120
 6.378        0.023430
 6.386        0.033890
 6.394        0.046930
 6.402        0.061070
 6.410        0.075430
 6.418        0.090170
 6.426        0.105000
 6.434        0.122000
 6.442        0.140600
 6.450        0.157000
 6.458        0.169200
 6.466        0.176700
 6.474        0.181600
 6.482        0.185500
 6.490        0.190000
 6.498        0.196300
 6.506        0.202900
 6.514        0.209300
 6.523        0.215700
 6.531        0.220700
 6.539        0.224900
 6.547        0.228800
 6.556        0.230300
 6.564        0.231100
 6.572        0.232500
 6.581        0.233000
 6.589        0.234400
 6.597        0.235600
 6.606        0.235800
 6.614        0.235900
 6.623        0.234700
 6.631        0.233800
 6.640        0.233600
 6.648        0.232700
 6.657        0.232500
 6.665        0.231700
 6.674        0.228400
 6.682        0.224100
 6.691        0.220200
 6.700        0.218300
 6.708        0.219600
 6.717        0.224000
 6.726        0.229600
 6.734        0.235000
 6.743        0.238600
 6.752        0.239500
 6.761        0.239100
 6.770        0.239100
 6.778        0.240000
 6.787        0.242800
 6.796        0.245900
 6.805        0.247900
 6.814        0.250300
 6.823        0.252500
 6.832        0.253300
 6.841        0.253400
 6.850        0.253700
 6.859        0.254800
 6.868        0.255100
 6.877        0.254500
 6.886        0.254700
 6.896        0.254900
 6.905        0.254500
 6.914        0.253600
 6.923        0.252400
 6.932        0.251300
 6.942        0.250500
 6.951        0.250800
 6.960        0.252500
 6.970        0.254300
 6.979        0.255200
 6.989        0.255000
 6.998        0.253000
 7.007        0.249300
 7.017        0.246000
 7.026        0.242800
 7.036        0.242000
 7.045        0.244400
 7.055        0.246300
 7.065        0.247600
 7.074        0.248100
 7.084        0.246600
 7.094        0.244900
 7.103        0.243900
 7.113        0.244200
 7.123        0.245800
 7.133        0.248200
 7.143        0.251500
 7.152        0.253400
 7.162        0.252700
 7.172        0.250300
 7.182        0.247300
 7.192        0.245000
 7.202        0.244300
 7.212        0.245300
 7.222        0.247200
 7.232        0.250600
 7.242        0.254800
 7.252        0.258200
 7.263        0.260600
 7.273        0.261600
 7.283        0.261300
 7.293        0.260000
 7.303        0.258400
 7.314        0.256900
 7.324        0.256300
 7.334        0.256200
 7.345        0.256400
 7.355        0.257500
 7.366        0.259500
 7.376        0.261900
 7.387        0.263900
 7.397        0.265300
 7.408        0.266500
 7.418        0.266700
 7.429        0.265800
 7.440        0.263700
 7.450        0.260700
 7.461        0.258300
 7.472        0.256800
 7.483        0.257100
 7.493        0.260400
 7.504        0.266000
 7.515        0.273000
 7.526        0.278600
 7.537        0.282300
 7.548        0.285300
 7.559        0.286400
 7.570        0.287000
 7.581        0.289100
 7.592        0.290700
 7.603        0.292400
 7.614        0.293500
 7.626        0.291700
 7.637        0.288900
 7.648        0.286100
 7.659        0.283400
 7.671        0.283300
 7.682        0.285900
 7.694        0.289300
 7.705        0.293300
 7.716        0.295700
 7.728        0.295500
 7.740        0.293900
 7.751        0.291500
 7.763        0.289500
 7.774        0.288700
 7.786        0.288600
 7.798        0.289700
 7.809        0.291200
 7.821        0.291500
 7.833        0.291600
 7.845        0.292100
 7.857        0.293400
 7.869        0.296300
 7.881        0.299900
 7.893        0.303400
 7.905        0.305900
 7.917        0.306200
 7.929        0.305200
 7.941        0.303100
 7.953        0.299700
 7.965        0.297100
 7.978        0.296200
 7.990        0.296100
 8.002        0.297900
 8.015        0.300500
 8.027        0.302500
 8.039        0.305500
 8.052        0.307500
 8.064        0.307400
 8.077        0.307700
 8.090        0.307500
 8.102        0.307600
 8.115        0.309600
 8.128        0.311600
 8.140        0.313700
 8.153        0.314800
 8.166        0.313300
 8.179        0.311300
 8.192        0.309100
 8.205        0.307500
 8.218        0.306900
 8.231        0.308600
 8.244        0.312300
 8.257        0.314600
 8.270        0.315700
 8.283        0.316400
 8.297        0.315300
 8.310        0.314100
 8.323        0.314300
 8.337        0.315500
 8.350        0.316300
 8.364        0.316600
 8.377        0.316100
 8.391        0.313000
 8.404        0.309300
 8.418        0.307300
 8.432        0.306700
 8.445        0.308200
 8.459        0.312000
 8.473        0.315700
 8.487        0.317500
 8.501        0.317400
 8.515        0.316300
 8.529        0.313900
 8.543        0.311400
 8.557        0.310700
 8.571        0.311900
 8.585        0.313100
 8.599        0.313100
 8.614        0.312900
 8.628        0.312800
 8.642        0.312900
 8.657        0.312400
 8.671        0.311100
 8.686        0.308700
 8.700        0.303700
 8.715        0.297000
 8.730        0.291400
 8.744        0.287900
 8.759        0.286300
 8.774        0.287600
 8.789        0.291500
 8.804        0.296300
 8.819        0.300300
 8.834        0.302100
 8.849        0.301600
 8.864        0.299200
 8.879        0.296100
 8.894        0.294400
 8.910        0.292800
 8.925        0.291400
 8.940        0.290700
 8.956        0.289000
 8.971        0.287800
 8.987        0.287300
 9.003        0.286400
 9.018        0.285700
 9.034        0.284200
 9.050        0.281300
 9.066        0.278300
 9.081        0.275300
 9.097        0.273000
 9.113        0.271900
 9.129        0.270600
 9.145        0.269100
 9.162        0.267300
 9.178        0.263300
 9.194        0.257400
 9.210        0.249300
 9.227        0.239000
 9.243        0.227800
 9.260        0.215200
 9.276        0.201000
 9.293        0.186700
 9.310        0.173800
 9.326        0.162000
 9.343        0.150500
 9.360        0.138900
 9.377        0.125300
 9.394        0.109700
 9.411        0.094590
 9.428        0.080550
 9.445        0.067880
 9.463        0.055700
 9.480        0.043480
 9.497        0.032500
 9.515        0.022990
 9.532        0.015390
 9.550        0.010800
 9.567        0.007850
 9.585        0.005610
 9.603        0.004374
 9.621        0.003300
 9.638        0.002547
 9.656        0.001985
 9.674        0.001671
 9.692        0.000757
 9.711        0.001264
 9.729        0.001430
 9.747        0.000987
 9.765        0.000652
 9.784        0.000585
 9.802        0.000430
 9.821        0.000430
 9.840        0.000644
 9.858        0.000283
 9.877        0.000413
 9.896        0.000346
 9.915        0.000528
 9.934        0.000338
 9.953        0.000596
 9.972        0.000219
 9.991        0.000337
10.010        0.000164
10.030        0.000296
10.050        0.000457
10.070        0.000648
10.090        0.000608
10.110        0.000223
10.130        0.000077
10.150        0.000054
10.170        0.000243
10.190        0.000518
10.210        0.000497
10.230        0.000637
10.250        0.000721
10.270        0.000529
10.290        0.000468
10.310        0.000115
