# Average Spectral response curve for Spitzer IRAC 5.8 micron subarray

# Extracted from:
# http://irsa.ipac.caltech.edu/data/SPITZER/docs/irac/calibrationfiles/spectralresponse/080924ch3trans_sub.txt

# Wavel    Spectral Response
# microns  electrons / photon
4.744210	0.000066
4.748560	0.000068
4.752910	0.000072
4.757270	0.000072
4.761640	0.000043
4.766010	0.000020
4.770400	0.000025
4.774790	0.000024
4.779190	0.000018
4.783600	0.000027
4.788020	0.000045
4.792440	0.000052
4.796880	0.000051
4.801320	0.000049
4.805770	0.000045
4.810230	0.000039
4.814690	0.000043
4.819170	0.000060
4.823650	0.000086
4.828140	0.000123
4.832640	0.000166
4.837150	0.000238
4.841660	0.000358
4.846190	0.000555
4.850720	0.000825
4.855270	0.001168
4.859820	0.001620
4.864370	0.002236
4.868940	0.003040
4.873520	0.003938
4.878100	0.004911
4.882700	0.005965
4.887300	0.007170
4.891910	0.008635
4.896530	0.010480
4.901160	0.012800
4.905790	0.015640
4.910440	0.018840
4.915090	0.022160
4.919760	0.025380
4.924430	0.028350
4.929110	0.031120
4.933800	0.033880
4.938500	0.036880
4.943210	0.040240
4.947920	0.043930
4.952650	0.047760
4.957380	0.051520
4.962130	0.055050
4.966880	0.058270
4.971640	0.061270
4.976410	0.064000
4.981190	0.066540
4.985980	0.068880
4.990780	0.071010
4.995590	0.072750
5.000410	0.074240
5.005230	0.075510
5.010070	0.076620
5.014920	0.077680
5.019770	0.078810
5.024630	0.080020
5.029510	0.081250
5.034390	0.082590
5.039280	0.084120
5.044190	0.085930
5.049100	0.087860
5.054020	0.089830
5.058950	0.091720
5.063890	0.093520
5.068840	0.095090
5.073800	0.096510
5.078770	0.097730
5.083750	0.098730
5.088740	0.099560
5.093740	0.100200
5.098740	0.100800
5.103760	0.101100
5.108790	0.101400
5.113830	0.101600
5.118880	0.101700
5.123940	0.101700
5.129000	0.101700
5.134080	0.101700
5.139170	0.101800
5.144270	0.101900
5.149380	0.102100
5.154500	0.102500
5.159630	0.103000
5.164760	0.103700
5.169910	0.104500
5.175070	0.105400
5.180240	0.106400
5.185420	0.107400
5.190610	0.108400
5.195810	0.109200
5.201030	0.109900
5.206250	0.110300
5.211480	0.110500
5.216720	0.110400
5.221980	0.110100
5.227240	0.109500
5.232520	0.108700
5.237800	0.107800
5.243100	0.107000
5.248400	0.106300
5.253720	0.105800
5.259050	0.105700
5.264390	0.105900
5.269740	0.106500
5.275100	0.107400
5.280470	0.108500
5.285850	0.109800
5.291250	0.111300
5.296650	0.112800
5.302070	0.114000
5.307500	0.115100
5.312930	0.116100
5.318380	0.117100
5.323840	0.117900
5.329310	0.118600
5.334800	0.119300
5.340290	0.119900
5.345800	0.120300
5.351310	0.120500
5.356840	0.120600
5.362380	0.120600
5.367930	0.120500
5.373500	0.120400
5.379070	0.120100
5.384660	0.119900
5.390250	0.119600
5.395860	0.119300
5.401480	0.119000
5.407110	0.118700
5.412760	0.118500
5.418420	0.118400
5.424080	0.118400
5.429760	0.118500
5.435450	0.118600
5.441160	0.118700
5.446870	0.119000
5.452600	0.119200
5.458340	0.119300
5.464090	0.119400
5.469860	0.119300
5.475630	0.119200
5.481420	0.119200
5.487220	0.119300
5.493030	0.119600
5.498860	0.120200
5.504700	0.120900
5.510550	0.121800
5.516410	0.122800
5.522280	0.123900
5.528170	0.124900
5.534070	0.125700
5.539980	0.126300
5.545910	0.126600
5.551840	0.126800
5.557800	0.126600
5.563760	0.126400
5.569730	0.126100
5.575720	0.125900
5.581730	0.125700
5.587740	0.125600
5.593770	0.125700
5.599810	0.126200
5.605860	0.126800
5.611930	0.127600
5.618010	0.128400
5.624100	0.129400
5.630210	0.130300
5.636330	0.131000
5.642460	0.131500
5.648610	0.131700
5.654770	0.131700
5.660940	0.131600
5.667130	0.131300
5.673330	0.131300
5.679540	0.131400
5.685770	0.131700
5.692010	0.132400
5.698270	0.133200
5.704540	0.134100
5.710820	0.135000
5.717110	0.135700
5.723430	0.136100
5.729750	0.136100
5.736090	0.135600
5.742440	0.134800
5.748810	0.133800
5.755190	0.132900
5.761580	0.132200
5.767990	0.132000
5.774410	0.132100
5.780850	0.132600
5.787300	0.133500
5.793770	0.134500
5.800250	0.135600
5.806740	0.136600
5.813250	0.137400
5.819780	0.138000
5.826320	0.138200
5.832870	0.138200
5.839440	0.137900
5.846020	0.137600
5.852620	0.137400
5.859240	0.137500
5.865860	0.137700
5.872510	0.137900
5.879160	0.138400
5.885840	0.138800
5.892530	0.139300
5.899230	0.139800
5.905950	0.140200
5.912680	0.140700
5.919430	0.141100
5.926200	0.141500
5.932980	0.141900
5.939770	0.142100
5.946590	0.142100
5.953410	0.142100
5.960260	0.141800
5.967120	0.141400
5.973990	0.141000
5.980880	0.140500
5.987790	0.140200
5.994710	0.140200
6.001650	0.140300
6.008600	0.140600
6.015570	0.141000
6.022560	0.141500
6.029560	0.141800
6.036580	0.141900
6.043620	0.141800
6.050670	0.141400
6.057740	0.140600
6.064820	0.139800
6.071920	0.138900
6.079040	0.138000
6.086180	0.137100
6.093330	0.136300
6.100500	0.135600
6.107680	0.135000
6.114890	0.134500
6.122110	0.134100
6.129340	0.133900
6.136600	0.133700
6.143870	0.133500
6.151150	0.133300
6.158460	0.132900
6.165780	0.132300
6.173120	0.131200
6.180480	0.130000
6.187860	0.128500
6.195250	0.126900
6.202660	0.125600
6.210090	0.124500
6.217530	0.123600
6.225000	0.123200
6.232480	0.123300
6.239980	0.123800
6.247500	0.124400
6.255030	0.124700
6.262590	0.124700
6.270160	0.124300
6.277750	0.123400
6.285360	0.122400
6.292990	0.121200
6.300640	0.119700
6.308300	0.117300
6.315980	0.113700
6.323690	0.108700
6.331410	0.102900
6.339150	0.096660
6.346910	0.090640
6.354690	0.085060
6.362480	0.079650
6.370300	0.074100
6.378130	0.068480
6.385990	0.062920
6.393860	0.057280
6.401760	0.050920
6.409670	0.043840
6.417600	0.036400
6.425560	0.029220
6.433530	0.022570
6.441520	0.016550
6.449530	0.011420
6.457560	0.007404
6.465610	0.004564
6.473690	0.002706
6.481780	0.001537
6.489890	0.000780
6.498020	0.000308
6.506180	0.000089
6.514350	0.000043
6.522540	0.000006
6.530760	0.000000
6.539000	0.000038
6.547250	0.000049
6.555530	0.000041
6.563830	0.000030
6.572150	0.000023
6.580490	0.000000
6.588850	0.000012
6.597230	0.000013
6.605630	0.000008
6.614060	0.000018
6.622510	0.000045
